# Version 2.1 - nm, norm@500 to 1 km10_7250.fits_g45
# Wavelength(nm)  Flambda(ergs/cm^s/s/nm)
270.50 0.6465395
271.50 0.5934487
272.50 0.6031011
273.50 0.6557852
274.50 0.5243983
275.50 0.5676015
276.50 0.6191006
277.50 0.6589537
278.50 0.6006556
279.50 0.2917029
280.50 0.3654087
281.50 0.6965357
282.50 0.71884
283.50 0.7038886
284.50 0.6704983
285.50 0.6010194
286.50 0.697748
287.50 0.6960469
288.50 0.710056
289.50 0.6925929
291.00 0.7673386
293.00 0.743698
295.00 0.736322
297.00 0.7469092
299.00 0.7574523
301.00 0.7647983
303.00 0.7695972
305.00 0.7778273
307.00 0.7876058
309.00 0.7941392
311.00 0.7843799
313.00 0.7875287
315.00 0.8014534
317.00 0.8001839
319.00 0.7586428
321.00 0.7817003
323.00 0.7518745
325.00 0.7834488
327.00 0.8102684
329.00 0.8147699
331.00 0.8268685
333.00 0.8141453
335.00 0.8088695
337.00 0.7999225
339.00 0.7989135
341.00 0.7981851
343.00 0.8076427
345.00 0.8027872
347.00 0.7998471
349.00 0.8045012
351.00 0.8138791
353.00 0.8032883
355.00 0.8249928
357.00 0.7945056
359.00 0.7855721
361.00 0.7919998
363.00 0.8006466
364.00 0.7976676
365.00 0.8267503
367.00 0.8005321
369.00 0.7370677
371.00 0.778851
373.00 0.7678928
375.00 0.883991
377.00 0.914143
379.00 1.013829
381.00 1.114739
383.00 0.9370761
385.00 1.177022
387.00 1.240152
389.00 0.9253679
391.00 1.240012
393.00 1.057192
395.00 1.225582
397.00 0.8601381
399.00 1.244128
401.00 1.313125
403.00 1.312871
405.00 1.303529
407.00 1.262745
409.00 1.147722
411.00 0.9666197
413.00 1.247937
415.00 1.270857
417.00 1.279203
419.00 1.257639
421.00 1.257057
423.00 1.231263
425.00 1.239111
427.00 1.228525
429.00 1.221448
431.00 1.168247
433.00 1.045939
435.00 0.9346894
437.00 1.185366
439.00 1.193799
441.00 1.186258
443.00 1.18766
445.00 1.181968
447.00 1.175423
449.00 1.173369
451.00 1.177472
453.00 1.156273
455.00 1.146569
457.00 1.158912
459.00 1.145176
461.00 1.145642
463.00 1.132735
465.00 1.13007
467.00 1.127686
469.00 1.113555
471.00 1.089883
473.00 1.104729
475.00 1.09866
477.00 1.090861
479.00 1.080387
481.00 1.068483
483.00 1.043071
485.00 0.9244464
487.00 0.7875988
489.00 1.003729
491.00 1.029226
493.00 1.018033
495.00 1.020923
497.00 1.02563
499.00 1.007959
501.00 0.9920408
503.00 1.003339
505.00 0.991378
507.00 0.9920961
509.00 0.9840229
511.00 0.9803862
513.00 0.9706325
515.00 0.9570124
517.00 0.934754
519.00 0.9340708
521.00 0.9350961
523.00 0.9294496
525.00 0.9385541
527.00 0.9115316
529.00 0.9230101
531.00 0.917732
533.00 0.8999536
535.00 0.9060136
537.00 0.8951376
539.00 0.8902756
541.00 0.8791622
543.00 0.8782833
545.00 0.8739863
547.00 0.8700807
549.00 0.8678139
551.00 0.862969
553.00 0.8561942
555.00 0.8532723
557.00 0.8421881
559.00 0.8370428
561.00 0.8333419
563.00 0.8311024
565.00 0.8260809
567.00 0.8180544
569.00 0.8151607
571.00 0.808626
573.00 0.8066267
575.00 0.7998826
577.00 0.7954818
579.00 0.7900408
581.00 0.7853271
583.00 0.7805706
585.00 0.7746244
587.00 0.7694425
589.00 0.7569522
591.00 0.7595815
593.00 0.7548103
595.00 0.7502992
597.00 0.745323
599.00 0.7402278
601.00 0.7347655
603.00 0.7297333
605.00 0.7265266
607.00 0.7219929
609.00 0.7167289
611.00 0.711761
613.00 0.7034247
615.00 0.7000556
617.00 0.695326
619.00 0.693995
621.00 0.6894535
623.00 0.6837105
625.00 0.676363
627.00 0.6763599
629.00 0.6720655
631.00 0.6661801
633.00 0.6622788
635.00 0.6579636
637.00 0.6538385
639.00 0.650307
641.00 0.6434604
643.00 0.6398657
645.00 0.633325
647.00 0.6302819
649.00 0.6224211
651.00 0.6172834
653.00 0.6031252
655.00 0.546899
656.10 0.4483229
659.00 0.5791797
661.00 0.5957041
663.00 0.5973749
665.00 0.5957348
667.00 0.592609
669.00 0.5901852
671.00 0.5869072
673.00 0.5834907
675.00 0.5794742
677.00 0.5761875
679.00 0.5725033
681.00 0.5687544
683.00 0.5651692
685.00 0.5611975
687.00 0.5581589
689.00 0.5547004
691.00 0.5511459
693.00 0.5476861
695.00 0.5442882
697.00 0.5407958
699.00 0.5375201
701.00 0.5333503
703.00 0.5304117
705.00 0.5274065
707.00 0.524064
709.00 0.5207508
711.00 0.5161514
713.00 0.5135273
715.00 0.5105107
717.00 0.5072257
719.00 0.5036478
721.00 0.5008285
723.00 0.4980326
725.00 0.4951161
727.00 0.492167
729.00 0.4883044
731.00 0.4857209
733.00 0.4825959
735.00 0.4801689
737.00 0.4772604
739.00 0.4735462
741.00 0.4678011
743.00 0.4675305
745.00 0.4650509
747.00 0.4621307
749.00 0.4589926
751.00 0.45631
753.00 0.4540226
755.00 0.4514878
757.00 0.4484988
759.00 0.4456923
761.00 0.4429614
763.00 0.4403568
765.00 0.4375925
767.00 0.4339264
769.00 0.4321832
771.00 0.4289526
773.00 0.4271657
775.00 0.4240833
777.00 0.4186492
779.00 0.419565
781.00 0.4169235
783.00 0.4137858
785.00 0.4113367
787.00 0.4092
789.00 0.4066911
791.00 0.404299
793.00 0.4008926
795.00 0.3987346
797.00 0.3973307
799.00 0.3947287
801.00 0.3919356
803.00 0.3899857
805.00 0.387374
807.00 0.3855029
809.00 0.3828372
811.00 0.3809743
813.00 0.3787821
815.00 0.3764932
817.00 0.3742446
819.00 0.3700312
821.00 0.3693738
823.00 0.3666438
825.00 0.3649793
827.00 0.3637021
829.00 0.3614436
831.00 0.3588525
833.00 0.3546489
835.00 0.3539707
837.00 0.3515046
839.00 0.3477485
841.00 0.3460324
843.00 0.3436058
845.00 0.3404575
847.00 0.33664
849.00 0.3374247
851.00 0.3261384
853.00 0.3346828
855.00 0.3100097
857.00 0.3339936
859.00 0.3235117
861.00 0.3193812
863.00 0.3306641
865.00 0.3237245
867.00 0.2940097
869.00 0.3217316
871.00 0.3254144
873.00 0.319484
875.00 0.2905724
877.00 0.3124507
879.00 0.3186967
881.00 0.3163947
883.00 0.3135871
885.00 0.3017342
887.00 0.2767329
889.00 0.3063476
891.00 0.3085712
893.00 0.3075127
895.00 0.3069511
897.00 0.3042692
899.00 0.2986542
901.00 0.2650728
903.00 0.2817267
905.00 0.2954821
907.00 0.2937212
909.00 0.290638
911.00 0.2926951
913.00 0.2927012
915.00 0.2909718
917.00 0.2887337
919.00 0.2854924
921.00 0.2762732
923.00 0.240207
925.00 0.2709044
927.00 0.2777023
929.00 0.2792216
931.00 0.2784068
933.00 0.2773186
935.00 0.2759779
937.00 0.2745601
939.00 0.2729119
941.00 0.2678282
943.00 0.269684
945.00 0.2679514
947.00 0.2662985
949.00 0.2642041
951.00 0.2607216
953.00 0.2514261
955.00 0.2183981
957.00 0.2507641
959.00 0.2556177
961.00 0.255062
963.00 0.2535637
965.00 0.2539254
967.00 0.251341
969.00 0.2512862
971.00 0.2502361
973.00 0.2488892
975.00 0.2471698
977.00 0.2461589
979.00 0.2448389
981.00 0.2435275
983.00 0.2422561
985.00 0.2408061
987.00 0.2394434
989.00 0.2377962
991.00 0.2368219
993.00 0.2356238
995.00 0.2342807
997.00 0.2326576
999.00 0.2308185
1002.50 0.2199932
1007.50 0.2113246
1012.50 0.2226999
1017.50 0.2207647
1022.50 0.2181773
1027.50 0.2154151
1032.50 0.2124833
1037.50 0.2098225
1042.50 0.2071473
1047.50 0.2038387
1052.50 0.2017702
1057.50 0.1992316
1062.50 0.1963838
1067.50 0.1921219
1072.50 0.1908996
1077.50 0.1887416
1082.50 0.1859576
1087.50 0.1827311
1092.50 0.1645158
1097.50 0.1740471
1102.50 0.1770219
1107.50 0.175612
1112.50 0.1734754
1117.50 0.1713215
1122.50 0.1693429
1127.50 0.1666201
1132.50 0.1646101
1137.50 0.1630611
1142.50 0.1608729
1147.50 0.1593248
1152.50 0.1574449
1157.50 0.1555011
1162.50 0.1531601
1167.50 0.1510306
1172.50 0.150075
1177.50 0.147005
1182.50 0.1457429
1187.50 0.1440252
1192.50 0.1431494
1197.50 0.140555
1202.50 0.1395349
1207.50 0.1375734
1212.50 0.1364309
1217.50 0.1349864
1222.50 0.1334092
1227.50 0.1317831
1232.50 0.1303181
1237.50 0.1288429
1242.50 0.1274067
1247.50 0.1259603
1252.50 0.1244846
1257.50 0.1229233
1262.50 0.1215724
1267.50 0.1201355
1272.50 0.1183627
1277.50 0.11479
1282.50 0.1015957
1287.50 0.1128589
1292.50 0.1132174
1297.50 0.1123915
1302.50 0.1112363
1307.50 0.1100513
1312.50 0.1087407
1317.50 0.1074642
1322.50 0.1064632
1327.50 0.1052683
1332.50 0.1041393
1337.50 0.1029821
1342.50 0.1018895
1347.50 0.1007852
1352.50 0.09965318
1357.50 0.09852686
1362.50 0.09755268
1367.50 0.09647699
1372.50 0.09517377
1377.50 0.09437266
1382.50 0.093375
1387.50 0.09245996
1392.50 0.09140749
1397.50 0.09048377
1402.50 0.08950951
1407.50 0.08860008
1412.50 0.08758769
1417.50 0.08674523
1422.50 0.08574076
1427.50 0.08480007
1432.50 0.08403975
1437.50 0.08319292
1442.50 0.08160053
1447.50 0.08144884
1452.50 0.08020149
1457.00 0.07977092
1462.00 0.07896465
1467.50 0.07815635
1472.50 0.07727106
1477.50 0.07640287
1482.50 0.0757165
1487.50 0.07459372
1492.50 0.07425756
1497.50 0.07339865
1502.50 0.07225501
1507.50 0.07163687
1512.50 0.07107154
1517.50 0.07030869
1522.50 0.06946957
1527.50 0.06870468
1532.50 0.06787749
1537.50 0.06726414
1542.50 0.0662064
1547.50 0.06584867
1552.50 0.06507413
1557.50 0.06387214
1562.50 0.06420671
1567.50 0.0627154
1572.50 0.06164502
1577.50 0.06218996
1582.50 0.06154419
1587.50 0.05862689
1592.50 0.05992762
1597.50 0.06045306
1605.00 0.05871038
1615.00 0.05620643
1625.00 0.05724548
1635.00 0.05488272
1645.00 0.05231279
1655.00 0.05383789
1665.00 0.05276581
1675.00 0.05024887
1685.00 0.04760791
1695.00 0.04949606
1705.00 0.04861985
1715.00 0.04761063
1725.00 0.04624519
1735.00 0.0419012
1745.00 0.04395361
1755.00 0.04376665
1765.00 0.04296265
1775.00 0.04215428
1785.00 0.04131339
1795.00 0.04047027
1805.00 0.03941042
1815.00 0.035711
1825.00 0.03718215
1835.00 0.03726489
1845.00 0.03660591
1855.00 0.03585134
1865.00 0.03487013
1875.00 0.03121976
1885.00 0.03343881
1895.00 0.0331003
1905.00 0.03265585
1915.00 0.03203386
1925.00 0.03137202
1935.00 0.03048199
1945.00 0.02748362
1955.00 0.0293697
1965.00 0.0291267
1975.00 0.02860704
1985.00 0.02812089
1995.00 0.02760999
2005.00 0.02711801
2015.00 0.02663627
2025.00 0.02614833
2035.00 0.02566941
2045.00 0.02523687
2055.00 0.02478969
2065.00 0.02432941
2075.00 0.02392001
2085.00 0.0235048
2095.00 0.02308574
2105.00 0.02269232
2115.00 0.02228875
2125.00 0.02190312
2135.00 0.02153366
2145.00 0.02114156
2155.00 0.02061522
2165.00 0.01861639
2175.00 0.01980663
2185.00 0.0197207
2195.00 0.01945329
2205.00 0.01911253
2215.00 0.01879651
2225.00 0.01850127
2235.00 0.01819753
2245.00 0.01789877
2255.00 0.01759358
2265.00 0.01731781
2275.00 0.01703861
2285.00 0.01676362
2295.00 0.01649736
